# T(K)  e1(-6/K)  e2(-6/K)  e3(-6/K)  e4(-6/K)  e5(-6/K)  e6(-6/K)
   0.0    0.0496    0.0496    0.0496    0.0000    0.0000    0.0000
  10.0    0.0363    0.0363    0.0363    0.0000    0.0000    0.0000
  20.0    0.2760    0.2760    0.2760    0.0000    0.0000    0.0000
  30.0    0.8807    0.8807    0.8807    0.0000    0.0000    0.0000
  40.0    1.8967    1.8967    1.8967    0.0000    0.0000    0.0000
  50.0    3.1354    3.1354    3.1354    0.0000    0.0000    0.0000
  60.0    4.4121    4.4121    4.4121    0.0000    0.0000    0.0000
  70.0    5.6162    5.6162    5.6162    0.0000    0.0000    0.0000
  80.0    6.6986    6.6986    6.6986    0.0000    0.0000    0.0000
  90.0    7.6473    7.6473    7.6473    0.0000    0.0000    0.0000
 100.0    8.4685    8.4685    8.4685    0.0000    0.0000    0.0000
 110.0    9.1755    9.1755    9.1755    0.0000    0.0000    0.0000
 120.0    9.7842    9.7842    9.7842    0.0000    0.0000    0.0000
 130.0   10.3094   10.3094   10.3094    0.0000    0.0000    0.0000
 140.0   10.7646   10.7646   10.7646    0.0000    0.0000    0.0000
 150.0   11.1611   11.1611   11.1611    0.0000    0.0000    0.0000
 160.0   11.5086   11.5086   11.5086    0.0000    0.0000    0.0000
 170.0   11.8152   11.8152   11.8152    0.0000    0.0000    0.0000
 180.0   12.0873   12.0873   12.0873    0.0000    0.0000    0.0000
 190.0   12.3305   12.3305   12.3305    0.0000    0.0000    0.0000
 200.0   12.5492   12.5492   12.5492    0.0000    0.0000    0.0000
 210.0   12.7470   12.7470   12.7470    0.0000    0.0000    0.0000
 220.0   12.9272   12.9272   12.9272    0.0000    0.0000    0.0000
 230.0   13.0922   13.0922   13.0922    0.0000    0.0000    0.0000
 240.0   13.2441   13.2441   13.2441    0.0000    0.0000    0.0000
 250.0   13.3848   13.3848   13.3848    0.0000    0.0000    0.0000
 260.0   13.5157   13.5157   13.5157    0.0000    0.0000    0.0000
 270.0   13.6382   13.6382   13.6382    0.0000    0.0000    0.0000
 280.0   13.7532   13.7532   13.7532    0.0000    0.0000    0.0000
 290.0   13.8618   13.8618   13.8618    0.0000    0.0000    0.0000
 300.0   13.9646   13.9646   13.9646    0.0000    0.0000    0.0000
 310.0   14.0624   14.0624   14.0624    0.0000    0.0000    0.0000
 320.0   14.1558   14.1558   14.1558    0.0000    0.0000    0.0000
 330.0   14.2453   14.2453   14.2453    0.0000    0.0000    0.0000
 340.0   14.3313   14.3313   14.3313    0.0000    0.0000    0.0000
 350.0   14.4142   14.4142   14.4142    0.0000    0.0000    0.0000
 360.0   14.4943   14.4943   14.4943    0.0000    0.0000    0.0000
 370.0   14.5720   14.5720   14.5720    0.0000    0.0000    0.0000
 380.0   14.6474   14.6474   14.6474    0.0000    0.0000    0.0000
 390.0   14.7209   14.7209   14.7209    0.0000    0.0000    0.0000
 400.0   14.7927   14.7927   14.7927    0.0000    0.0000    0.0000
 410.0   14.8628   14.8628   14.8628    0.0000    0.0000    0.0000
 420.0   14.9316   14.9316   14.9316    0.0000    0.0000    0.0000
 430.0   14.9991   14.9991   14.9991    0.0000    0.0000    0.0000
 440.0   15.0655   15.0655   15.0655    0.0000    0.0000    0.0000
 450.0   15.1308   15.1308   15.1308    0.0000    0.0000    0.0000
 460.0   15.1953   15.1953   15.1953    0.0000    0.0000    0.0000
 470.0   15.2590   15.2590   15.2590    0.0000    0.0000    0.0000
 480.0   15.3219   15.3219   15.3219    0.0000    0.0000    0.0000
 490.0   15.3843   15.3843   15.3843    0.0000    0.0000    0.0000
 500.0   15.4460   15.4460   15.4460    0.0000    0.0000    0.0000
 510.0   15.5073   15.5073   15.5073    0.0000    0.0000    0.0000
 520.0   15.5682   15.5682   15.5682    0.0000    0.0000    0.0000
 530.0   15.6287   15.6287   15.6287    0.0000    0.0000    0.0000
 540.0   15.6889   15.6889   15.6889    0.0000    0.0000    0.0000
 550.0   15.7489   15.7489   15.7489    0.0000    0.0000    0.0000
 560.0   15.8086   15.8086   15.8086    0.0000    0.0000    0.0000
 570.0   15.8682   15.8682   15.8682    0.0000    0.0000    0.0000
 580.0   15.9276   15.9276   15.9276    0.0000    0.0000    0.0000
 590.0   15.9870   15.9870   15.9870    0.0000    0.0000    0.0000
 600.0   16.0462   16.0462   16.0462    0.0000    0.0000    0.0000
 610.0   16.1055   16.1055   16.1055    0.0000    0.0000    0.0000
 620.0   16.1648   16.1648   16.1648    0.0000    0.0000    0.0000
 630.0   16.2242   16.2242   16.2242    0.0000    0.0000    0.0000
 640.0   16.2836   16.2836   16.2836    0.0000    0.0000    0.0000
 650.0   16.3431   16.3431   16.3431    0.0000    0.0000    0.0000
 660.0   16.4027   16.4027   16.4027    0.0000    0.0000    0.0000
 670.0   16.4625   16.4625   16.4625    0.0000    0.0000    0.0000
 680.0   16.5225   16.5225   16.5225    0.0000    0.0000    0.0000
 690.0   16.5827   16.5827   16.5827    0.0000    0.0000    0.0000
 700.0   16.6431   16.6431   16.6431    0.0000    0.0000    0.0000
 710.0   16.7037   16.7037   16.7037    0.0000    0.0000    0.0000
 720.0   16.7647   16.7647   16.7647    0.0000    0.0000    0.0000
 730.0   16.8259   16.8259   16.8259    0.0000    0.0000    0.0000
 740.0   16.8874   16.8874   16.8874    0.0000    0.0000    0.0000
 750.0   16.9493   16.9493   16.9493    0.0000    0.0000    0.0000
 760.0   17.0115   17.0115   17.0115    0.0000    0.0000    0.0000
 770.0   17.0742   17.0742   17.0742    0.0000    0.0000    0.0000
 780.0   17.1372   17.1372   17.1372    0.0000    0.0000    0.0000
 790.0   17.2006   17.2006   17.2006    0.0000    0.0000    0.0000
 800.0   17.2645   17.2645   17.2645    0.0000    0.0000    0.0000
 810.0   17.3289   17.3289   17.3289    0.0000    0.0000    0.0000
 820.0   17.3937   17.3937   17.3937    0.0000    0.0000    0.0000
 830.0   17.4590   17.4590   17.4590    0.0000    0.0000    0.0000
 840.0   17.5249   17.5249   17.5249    0.0000    0.0000    0.0000
 850.0   17.5913   17.5913   17.5913    0.0000    0.0000    0.0000
 860.0   17.6583   17.6583   17.6583    0.0000    0.0000    0.0000
 870.0   17.7259   17.7259   17.7259    0.0000    0.0000    0.0000
 880.0   17.7940   17.7940   17.7940    0.0000    0.0000    0.0000
 890.0   17.8628   17.8628   17.8628    0.0000    0.0000    0.0000
 900.0   17.9323   17.9323   17.9323    0.0000    0.0000    0.0000
 910.0   18.0025   18.0025   18.0025    0.0000    0.0000    0.0000
 920.0   18.0733   18.0733   18.0733    0.0000    0.0000    0.0000
 930.0   18.1449   18.1449   18.1449    0.0000    0.0000    0.0000
 940.0   18.2172   18.2172   18.2172    0.0000    0.0000    0.0000
 950.0   18.2901   18.2901   18.2901    0.0000    0.0000    0.0000
 960.0   18.3647   18.3647   18.3647    0.0000    0.0000    0.0000
 970.0   18.4297   18.4297   18.4297    0.0000    0.0000    0.0000
 980.0   18.4847   18.4847   18.4847    0.0000    0.0000    0.0000
 990.0   18.5408   18.5408   18.5408    0.0000    0.0000    0.0000
1000.0   18.5970   18.5970   18.5970    0.0000    0.0000    0.0000
1010.0   18.6536   18.6536   18.6536    0.0000    0.0000    0.0000
1020.0   18.7105   18.7105   18.7105    0.0000    0.0000    0.0000
1030.0   18.7677   18.7677   18.7677    0.0000    0.0000    0.0000
1040.0   18.8253   18.8253   18.8253    0.0000    0.0000    0.0000
1050.0   18.8832   18.8832   18.8832    0.0000    0.0000    0.0000
1060.0   18.9415   18.9415   18.9415    0.0000    0.0000    0.0000
1070.0   19.0001   19.0001   19.0001    0.0000    0.0000    0.0000
1080.0   19.0591   19.0591   19.0591    0.0000    0.0000    0.0000
1090.0   19.1185   19.1185   19.1185    0.0000    0.0000    0.0000
1100.0   19.1783   19.1783   19.1783    0.0000    0.0000    0.0000
1110.0   19.2385   19.2385   19.2385    0.0000    0.0000    0.0000
1120.0   19.2992   19.2992   19.2992    0.0000    0.0000    0.0000
1130.0   19.3602   19.3602   19.3602    0.0000    0.0000    0.0000
1140.0   19.4217   19.4217   19.4217    0.0000    0.0000    0.0000
1150.0   19.4837   19.4837   19.4837    0.0000    0.0000    0.0000
1160.0   19.5461   19.5461   19.5461    0.0000    0.0000    0.0000
1170.0   19.6089   19.6089   19.6089    0.0000    0.0000    0.0000
1180.0   19.6722   19.6722   19.6722    0.0000    0.0000    0.0000
1190.0   19.7360   19.7360   19.7360    0.0000    0.0000    0.0000
1200.0   19.8004   19.8004   19.8004    0.0000    0.0000    0.0000
1210.0   19.8652   19.8652   19.8652    0.0000    0.0000    0.0000
1220.0   19.9305   19.9305   19.9305    0.0000    0.0000    0.0000
1230.0   19.9963   19.9963   19.9963    0.0000    0.0000    0.0000
1240.0   20.0627   20.0627   20.0627    0.0000    0.0000    0.0000
1250.0   20.1297   20.1297   20.1297    0.0000    0.0000    0.0000
1260.0   20.1971   20.1971   20.1971    0.0000    0.0000    0.0000
1270.0   20.2652   20.2652   20.2652    0.0000    0.0000    0.0000
1280.0   20.3338   20.3338   20.3338    0.0000    0.0000    0.0000
1290.0   20.4031   20.4031   20.4031    0.0000    0.0000    0.0000
1300.0   20.4729   20.4729   20.4729    0.0000    0.0000    0.0000
1310.0   20.5433   20.5433   20.5433    0.0000    0.0000    0.0000
1320.0   20.6144   20.6144   20.6144    0.0000    0.0000    0.0000
1330.0   20.6861   20.6861   20.6861    0.0000    0.0000    0.0000
1340.0   20.7585   20.7585   20.7585    0.0000    0.0000    0.0000
1350.0   20.8315   20.8315   20.8315    0.0000    0.0000    0.0000
1360.0   20.9052   20.9052   20.9052    0.0000    0.0000    0.0000
1370.0   20.9795   20.9795   20.9795    0.0000    0.0000    0.0000
1380.0   21.0546   21.0546   21.0546    0.0000    0.0000    0.0000
1390.0   21.1304   21.1304   21.1304    0.0000    0.0000    0.0000
1400.0   21.2069   21.2069   21.2069    0.0000    0.0000    0.0000
1410.0   21.2842   21.2842   21.2842    0.0000    0.0000    0.0000
1420.0   21.3622   21.3622   21.3622    0.0000    0.0000    0.0000
1430.0   21.4410   21.4410   21.4410    0.0000    0.0000    0.0000
1440.0   21.5206   21.5206   21.5206    0.0000    0.0000    0.0000
1450.0   21.6010   21.6010   21.6010    0.0000    0.0000    0.0000
1460.0   21.6822   21.6822   21.6822    0.0000    0.0000    0.0000
1470.0   21.7642   21.7642   21.7642    0.0000    0.0000    0.0000
1480.0   21.8471   21.8471   21.8471    0.0000    0.0000    0.0000
1490.0   21.9308   21.9308   21.9308    0.0000    0.0000    0.0000
1500.0   22.0155   22.0155   22.0155    0.0000    0.0000    0.0000
1510.0   22.1010   22.1010   22.1010    0.0000    0.0000    0.0000
1520.0   22.1875   22.1875   22.1875    0.0000    0.0000    0.0000
1530.0   22.2748   22.2748   22.2748    0.0000    0.0000    0.0000
1540.0   22.3632   22.3632   22.3632    0.0000    0.0000    0.0000
1550.0   22.4525   22.4525   22.4525    0.0000    0.0000    0.0000
1560.0   22.5429   22.5429   22.5429    0.0000    0.0000    0.0000
1570.0   22.6342   22.6342   22.6342    0.0000    0.0000    0.0000
1580.0   22.7266   22.7266   22.7266    0.0000    0.0000    0.0000
1590.0   22.8201   22.8201   22.8201    0.0000    0.0000    0.0000
1600.0   22.9147   22.9147   22.9147    0.0000    0.0000    0.0000
1610.0   23.0103   23.0103   23.0103    0.0000    0.0000    0.0000
1620.0   23.1071   23.1071   23.1071    0.0000    0.0000    0.0000
1630.0   23.2051   23.2051   23.2051    0.0000    0.0000    0.0000
1640.0   23.3042   23.3042   23.3042    0.0000    0.0000    0.0000
1650.0   23.4045   23.4045   23.4045    0.0000    0.0000    0.0000
1660.0   23.5064   23.5064   23.5064    0.0000    0.0000    0.0000
1670.0   23.6083   23.6083   23.6083    0.0000    0.0000    0.0000
1680.0   23.7010   23.7010   23.7010    0.0000    0.0000    0.0000
1690.0   23.7881   23.7881   23.7881    0.0000    0.0000    0.0000
1700.0   23.8779   23.8779   23.8779    0.0000    0.0000    0.0000
1710.0   23.9686   23.9686   23.9686    0.0000    0.0000    0.0000
1720.0   24.0607   24.0607   24.0607    0.0000    0.0000    0.0000
1730.0   24.1542   24.1542   24.1542    0.0000    0.0000    0.0000
1740.0   24.2490   24.2490   24.2490    0.0000    0.0000    0.0000
1750.0   24.3453   24.3453   24.3453    0.0000    0.0000    0.0000
1760.0   24.4429   24.4429   24.4429    0.0000    0.0000    0.0000
1770.0   24.5421   24.5421   24.5421    0.0000    0.0000    0.0000
1780.0   24.6429   24.6429   24.6429    0.0000    0.0000    0.0000
1790.0   24.7452   24.7452   24.7452    0.0000    0.0000    0.0000
1800.0   24.8492   24.8492   24.8492    0.0000    0.0000    0.0000
1810.0   24.9547   24.9547   24.9547    0.0000    0.0000    0.0000
1820.0   25.0620   25.0620   25.0620    0.0000    0.0000    0.0000
1830.0   25.1710   25.1710   25.1710    0.0000    0.0000    0.0000
1840.0   25.2819   25.2819   25.2819    0.0000    0.0000    0.0000
1850.0   25.3945   25.3945   25.3945    0.0000    0.0000    0.0000
1860.0   25.5091   25.5091   25.5091    0.0000    0.0000    0.0000
1870.0   25.6256   25.6256   25.6256    0.0000    0.0000    0.0000
1880.0   25.7442   25.7442   25.7442    0.0000    0.0000    0.0000
1890.0   25.8648   25.8648   25.8648    0.0000    0.0000    0.0000
1900.0   25.9875   25.9875   25.9875    0.0000    0.0000    0.0000
1910.0   26.1124   26.1124   26.1124    0.0000    0.0000    0.0000
1920.0   26.2396   26.2396   26.2396    0.0000    0.0000    0.0000
1930.0   26.3691   26.3691   26.3691    0.0000    0.0000    0.0000
1940.0   26.5009   26.5009   26.5009    0.0000    0.0000    0.0000
1950.0   26.6353   26.6353   26.6353    0.0000    0.0000    0.0000
1960.0   26.7722   26.7722   26.7722    0.0000    0.0000    0.0000
1970.0   26.9117   26.9117   26.9117    0.0000    0.0000    0.0000
1980.0   27.0539   27.0539   27.0539    0.0000    0.0000    0.0000
1990.0   27.1989   27.1989   27.1989    0.0000    0.0000    0.0000
2000.0   27.3468   27.3468   27.3468    0.0000    0.0000    0.0000
