# T(K)  e1(-6/K)  e2(-6/K)  e3(-6/K)  e4(-6/K)  e5(-6/K)  e6(-6/K)
   0.0    0.0475    0.0475    0.0475    0.0000    0.0000    0.0000
  10.0    0.0385    0.0385    0.0385    0.0000    0.0000    0.0000
  20.0    0.2762    0.2762    0.2762    0.0000    0.0000    0.0000
  30.0    0.8711    0.8711    0.8711    0.0000    0.0000    0.0000
  40.0    1.8713    1.8713    1.8713    0.0000    0.0000    0.0000
  50.0    3.0937    3.0937    3.0937    0.0000    0.0000    0.0000
  60.0    4.3564    4.3564    4.3564    0.0000    0.0000    0.0000
  70.0    5.5495    5.5495    5.5495    0.0000    0.0000    0.0000
  80.0    6.6237    6.6237    6.6237    0.0000    0.0000    0.0000
  90.0    7.5663    7.5663    7.5663    0.0000    0.0000    0.0000
 100.0    8.3828    8.3828    8.3828    0.0000    0.0000    0.0000
 110.0    9.0865    9.0865    9.0865    0.0000    0.0000    0.0000
 120.0    9.6925    9.6925    9.6925    0.0000    0.0000    0.0000
 130.0   10.2158   10.2158   10.2158    0.0000    0.0000    0.0000
 140.0   10.6693   10.6693   10.6693    0.0000    0.0000    0.0000
 150.0   11.0646   11.0646   11.0646    0.0000    0.0000    0.0000
 160.0   11.4111   11.4111   11.4111    0.0000    0.0000    0.0000
 170.0   11.7168   11.7168   11.7168    0.0000    0.0000    0.0000
 180.0   11.9881   11.9881   11.9881    0.0000    0.0000    0.0000
 190.0   12.2306   12.2306   12.2306    0.0000    0.0000    0.0000
 200.0   12.4487   12.4487   12.4487    0.0000    0.0000    0.0000
 210.0   12.6460   12.6460   12.6460    0.0000    0.0000    0.0000
 220.0   12.8256   12.8256   12.8256    0.0000    0.0000    0.0000
 230.0   12.9901   12.9901   12.9901    0.0000    0.0000    0.0000
 240.0   13.1415   13.1415   13.1415    0.0000    0.0000    0.0000
 250.0   13.2817   13.2817   13.2817    0.0000    0.0000    0.0000
 260.0   13.4122   13.4122   13.4122    0.0000    0.0000    0.0000
 270.0   13.5342   13.5342   13.5342    0.0000    0.0000    0.0000
 280.0   13.6487   13.6487   13.6487    0.0000    0.0000    0.0000
 290.0   13.7568   13.7568   13.7568    0.0000    0.0000    0.0000
 300.0   13.8592   13.8592   13.8592    0.0000    0.0000    0.0000
 310.0   13.9566   13.9566   13.9566    0.0000    0.0000    0.0000
 320.0   14.0495   14.0495   14.0495    0.0000    0.0000    0.0000
 330.0   14.1385   14.1385   14.1385    0.0000    0.0000    0.0000
 340.0   14.2240   14.2240   14.2240    0.0000    0.0000    0.0000
 350.0   14.3064   14.3064   14.3064    0.0000    0.0000    0.0000
 360.0   14.3860   14.3860   14.3860    0.0000    0.0000    0.0000
 370.0   14.4632   14.4632   14.4632    0.0000    0.0000    0.0000
 380.0   14.5382   14.5382   14.5382    0.0000    0.0000    0.0000
 390.0   14.6112   14.6112   14.6112    0.0000    0.0000    0.0000
 400.0   14.6824   14.6824   14.6824    0.0000    0.0000    0.0000
 410.0   14.7521   14.7521   14.7521    0.0000    0.0000    0.0000
 420.0   14.8203   14.8203   14.8203    0.0000    0.0000    0.0000
 430.0   14.8873   14.8873   14.8873    0.0000    0.0000    0.0000
 440.0   14.9531   14.9531   14.9531    0.0000    0.0000    0.0000
 450.0   15.0179   15.0179   15.0179    0.0000    0.0000    0.0000
 460.0   15.0818   15.0818   15.0818    0.0000    0.0000    0.0000
 470.0   15.1449   15.1449   15.1449    0.0000    0.0000    0.0000
 480.0   15.2073   15.2073   15.2073    0.0000    0.0000    0.0000
 490.0   15.2690   15.2690   15.2690    0.0000    0.0000    0.0000
 500.0   15.3302   15.3302   15.3302    0.0000    0.0000    0.0000
 510.0   15.3909   15.3909   15.3909    0.0000    0.0000    0.0000
 520.0   15.4512   15.4512   15.4512    0.0000    0.0000    0.0000
 530.0   15.5111   15.5111   15.5111    0.0000    0.0000    0.0000
 540.0   15.5707   15.5707   15.5707    0.0000    0.0000    0.0000
 550.0   15.6300   15.6300   15.6300    0.0000    0.0000    0.0000
 560.0   15.6890   15.6890   15.6890    0.0000    0.0000    0.0000
 570.0   15.7479   15.7479   15.7479    0.0000    0.0000    0.0000
 580.0   15.8067   15.8067   15.8067    0.0000    0.0000    0.0000
 590.0   15.8654   15.8654   15.8654    0.0000    0.0000    0.0000
 600.0   15.9240   15.9240   15.9240    0.0000    0.0000    0.0000
 610.0   15.9826   15.9826   15.9826    0.0000    0.0000    0.0000
 620.0   16.0411   16.0411   16.0411    0.0000    0.0000    0.0000
 630.0   16.0997   16.0997   16.0997    0.0000    0.0000    0.0000
 640.0   16.1584   16.1584   16.1584    0.0000    0.0000    0.0000
 650.0   16.2172   16.2172   16.2172    0.0000    0.0000    0.0000
 660.0   16.2761   16.2761   16.2761    0.0000    0.0000    0.0000
 670.0   16.3351   16.3351   16.3351    0.0000    0.0000    0.0000
 680.0   16.3943   16.3943   16.3943    0.0000    0.0000    0.0000
 690.0   16.4536   16.4536   16.4536    0.0000    0.0000    0.0000
 700.0   16.5132   16.5132   16.5132    0.0000    0.0000    0.0000
 710.0   16.5730   16.5730   16.5730    0.0000    0.0000    0.0000
 720.0   16.6331   16.6331   16.6331    0.0000    0.0000    0.0000
 730.0   16.6935   16.6935   16.6935    0.0000    0.0000    0.0000
 740.0   16.7542   16.7542   16.7542    0.0000    0.0000    0.0000
 750.0   16.8151   16.8151   16.8151    0.0000    0.0000    0.0000
 760.0   16.8765   16.8765   16.8765    0.0000    0.0000    0.0000
 770.0   16.9382   16.9382   16.9382    0.0000    0.0000    0.0000
 780.0   17.0003   17.0003   17.0003    0.0000    0.0000    0.0000
 790.0   17.0627   17.0627   17.0627    0.0000    0.0000    0.0000
 800.0   17.1256   17.1256   17.1256    0.0000    0.0000    0.0000
 810.0   17.1890   17.1890   17.1890    0.0000    0.0000    0.0000
 820.0   17.2528   17.2528   17.2528    0.0000    0.0000    0.0000
 830.0   17.3171   17.3171   17.3171    0.0000    0.0000    0.0000
 840.0   17.3819   17.3819   17.3819    0.0000    0.0000    0.0000
 850.0   17.4473   17.4473   17.4473    0.0000    0.0000    0.0000
 860.0   17.5132   17.5132   17.5132    0.0000    0.0000    0.0000
 870.0   17.5796   17.5796   17.5796    0.0000    0.0000    0.0000
 880.0   17.6467   17.6467   17.6467    0.0000    0.0000    0.0000
 890.0   17.7143   17.7143   17.7143    0.0000    0.0000    0.0000
 900.0   17.7826   17.7826   17.7826    0.0000    0.0000    0.0000
 910.0   17.8515   17.8515   17.8515    0.0000    0.0000    0.0000
 920.0   17.9212   17.9212   17.9212    0.0000    0.0000    0.0000
 930.0   17.9915   17.9915   17.9915    0.0000    0.0000    0.0000
 940.0   18.0625   18.0625   18.0625    0.0000    0.0000    0.0000
 950.0   18.1341   18.1341   18.1341    0.0000    0.0000    0.0000
 960.0   18.2073   18.2073   18.2073    0.0000    0.0000    0.0000
 970.0   18.2786   18.2786   18.2786    0.0000    0.0000    0.0000
 980.0   18.3384   18.3384   18.3384    0.0000    0.0000    0.0000
 990.0   18.3923   18.3923   18.3923    0.0000    0.0000    0.0000
1000.0   18.4480   18.4480   18.4480    0.0000    0.0000    0.0000
1010.0   18.5036   18.5036   18.5036    0.0000    0.0000    0.0000
1020.0   18.5597   18.5597   18.5597    0.0000    0.0000    0.0000
1030.0   18.6160   18.6160   18.6160    0.0000    0.0000    0.0000
1040.0   18.6727   18.6727   18.6727    0.0000    0.0000    0.0000
1050.0   18.7297   18.7297   18.7297    0.0000    0.0000    0.0000
1060.0   18.7870   18.7870   18.7870    0.0000    0.0000    0.0000
1070.0   18.8447   18.8447   18.8447    0.0000    0.0000    0.0000
1080.0   18.9028   18.9028   18.9028    0.0000    0.0000    0.0000
1090.0   18.9612   18.9612   18.9612    0.0000    0.0000    0.0000
1100.0   19.0200   19.0200   19.0200    0.0000    0.0000    0.0000
1110.0   19.0793   19.0793   19.0793    0.0000    0.0000    0.0000
1120.0   19.1389   19.1389   19.1389    0.0000    0.0000    0.0000
1130.0   19.1989   19.1989   19.1989    0.0000    0.0000    0.0000
1140.0   19.2594   19.2594   19.2594    0.0000    0.0000    0.0000
1150.0   19.3203   19.3203   19.3203    0.0000    0.0000    0.0000
1160.0   19.3816   19.3816   19.3816    0.0000    0.0000    0.0000
1170.0   19.4434   19.4434   19.4434    0.0000    0.0000    0.0000
1180.0   19.5056   19.5056   19.5056    0.0000    0.0000    0.0000
1190.0   19.5683   19.5683   19.5683    0.0000    0.0000    0.0000
1200.0   19.6315   19.6315   19.6315    0.0000    0.0000    0.0000
1210.0   19.6951   19.6951   19.6951    0.0000    0.0000    0.0000
1220.0   19.7593   19.7593   19.7593    0.0000    0.0000    0.0000
1230.0   19.8240   19.8240   19.8240    0.0000    0.0000    0.0000
1240.0   19.8892   19.8892   19.8892    0.0000    0.0000    0.0000
1250.0   19.9549   19.9549   19.9549    0.0000    0.0000    0.0000
1260.0   20.0211   20.0211   20.0211    0.0000    0.0000    0.0000
1270.0   20.0879   20.0879   20.0879    0.0000    0.0000    0.0000
1280.0   20.1553   20.1553   20.1553    0.0000    0.0000    0.0000
1290.0   20.2232   20.2232   20.2232    0.0000    0.0000    0.0000
1300.0   20.2917   20.2917   20.2917    0.0000    0.0000    0.0000
1310.0   20.3608   20.3608   20.3608    0.0000    0.0000    0.0000
1320.0   20.4305   20.4305   20.4305    0.0000    0.0000    0.0000
1330.0   20.5009   20.5009   20.5009    0.0000    0.0000    0.0000
1340.0   20.5718   20.5718   20.5718    0.0000    0.0000    0.0000
1350.0   20.6434   20.6434   20.6434    0.0000    0.0000    0.0000
1360.0   20.7156   20.7156   20.7156    0.0000    0.0000    0.0000
1370.0   20.7885   20.7885   20.7885    0.0000    0.0000    0.0000
1380.0   20.8621   20.8621   20.8621    0.0000    0.0000    0.0000
1390.0   20.9364   20.9364   20.9364    0.0000    0.0000    0.0000
1400.0   21.0114   21.0114   21.0114    0.0000    0.0000    0.0000
1410.0   21.0871   21.0871   21.0871    0.0000    0.0000    0.0000
1420.0   21.1635   21.1635   21.1635    0.0000    0.0000    0.0000
1430.0   21.2406   21.2406   21.2406    0.0000    0.0000    0.0000
1440.0   21.3186   21.3186   21.3186    0.0000    0.0000    0.0000
1450.0   21.3972   21.3972   21.3972    0.0000    0.0000    0.0000
1460.0   21.4767   21.4767   21.4767    0.0000    0.0000    0.0000
1470.0   21.5570   21.5570   21.5570    0.0000    0.0000    0.0000
1480.0   21.6381   21.6381   21.6381    0.0000    0.0000    0.0000
1490.0   21.7200   21.7200   21.7200    0.0000    0.0000    0.0000
1500.0   21.8028   21.8028   21.8028    0.0000    0.0000    0.0000
1510.0   21.8865   21.8865   21.8865    0.0000    0.0000    0.0000
1520.0   21.9710   21.9710   21.9710    0.0000    0.0000    0.0000
1530.0   22.0565   22.0565   22.0565    0.0000    0.0000    0.0000
1540.0   22.1428   22.1428   22.1428    0.0000    0.0000    0.0000
1550.0   22.2302   22.2302   22.2302    0.0000    0.0000    0.0000
1560.0   22.3184   22.3184   22.3184    0.0000    0.0000    0.0000
1570.0   22.4077   22.4077   22.4077    0.0000    0.0000    0.0000
1580.0   22.4979   22.4979   22.4979    0.0000    0.0000    0.0000
1590.0   22.5892   22.5892   22.5892    0.0000    0.0000    0.0000
1600.0   22.6815   22.6815   22.6815    0.0000    0.0000    0.0000
