# T(K) V(Ang^3) B(GPa) M1(GPa) M2(GPa) M3(GPa) M4(GPa) M5(GPa) M6(GPa) E(GPa) G(GPa)
0.0  11.067561   190.46   577.07   201.24   177.83   158.82   102.46    86.67   276.76   110.02
0.11  11.067561   190.46   577.07   201.24   177.83   158.82   102.46    86.67   276.76   110.02
0.29  11.067561   190.46   577.07   201.24   177.83   158.82   102.46    86.67   276.76   110.02
0.53  11.067561   190.46   577.07   201.24   177.83   158.82   102.46    86.67   276.76   110.02
0.83  11.067561   190.46   577.07   201.24   177.83   158.82   102.46    86.67   276.76   110.02
1.2  11.067561   190.46   577.07   201.24   177.83   158.82   102.46    86.67   276.76   110.02
1.63  11.067561   190.46   577.07   201.24   177.83   158.82   102.46    86.67   276.76   110.02
2.12  11.067561   190.46   577.07   201.24   177.83   158.82   102.46    86.67   276.76   110.02
2.68  11.067561   190.46   577.07   201.24   177.83   158.82   102.46    86.67   276.76   110.02
3.3  11.067561   190.46   577.07   201.24   177.83   158.82   102.46    86.67   276.76   110.02
3.98  11.067562   190.46   577.07   201.24   177.83   158.82   102.46    86.67   276.76   110.02
4.72  11.067562   190.46   577.07   201.24   177.83   158.82   102.46    86.67   276.76   110.02
5.53  11.067562   190.46   577.07   201.24   177.83   158.82   102.46    86.67   276.76   110.02
6.41  11.067562   190.46   577.07   201.24   177.83   158.82   102.46    86.67   276.76   110.02
7.34  11.067562   190.46   577.07   201.24   177.83   158.82   102.46    86.67   276.76   110.02
8.34  11.067562   190.46   577.07   201.24   177.83   158.82   102.46    86.67   276.76   110.02
9.4  11.067562   190.46   577.07   201.24   177.83   158.82   102.46    86.67   276.76   110.02
10.53  11.067562   190.46   577.07   201.24   177.83   158.82   102.46    86.67   276.76   110.02
11.72  11.067562   190.46   577.07   201.24   177.83   158.82   102.46    86.67   276.76   110.02
12.97  11.067562   190.46   577.07   201.24   177.83   158.82   102.46    86.67   276.76   110.02
14.28  11.067563   190.46   577.07   201.24   177.83   158.82   102.46    86.67   276.76   110.02
15.66  11.067563   190.46   577.06   201.24   177.82   158.82   102.46    86.67   276.76   110.02
17.1  11.067564   190.46   577.06   201.23   177.82   158.82   102.46    86.67   276.76   110.02
18.61  11.067565   190.46   577.06   201.23   177.82   158.82   102.46    86.67   276.76   110.02
20.18  11.067567   190.45   577.05   201.23   177.82   158.82   102.46    86.67   276.76   110.02
21.81  11.067569   190.45   577.04   201.23   177.82   158.82   102.46    86.67   276.76   110.02
23.51  11.067572   190.45   577.03   201.23   177.82   158.82   102.46    86.67   276.76   110.02
25.26  11.067577   190.44   577.02   201.22   177.81   158.82   102.46    86.67   276.75   110.01
27.09  11.067582   190.44   577.01   201.22   177.81   158.82   102.46    86.67   276.75   110.01
28.97  11.067590   190.43   576.99   201.22   177.81   158.82   102.46    86.67   276.75   110.01
30.92  11.067600   190.43   576.97   201.21   177.80   158.81   102.46    86.67   276.74   110.01
32.93  11.067612   190.42   576.95   201.20   177.79   158.81   102.46    86.66   276.74   110.01
35.01  11.067627   190.41   576.92   201.19   177.79   158.81   102.46    86.66   276.73   110.01
37.14  11.067645   190.40   576.89   201.19   177.78   158.81   102.46    86.66   276.72   110.00
39.35  11.067667   190.39   576.85   201.18   177.77   158.81   102.45    86.66   276.71   110.00
41.61  11.067694   190.38   576.81   201.16   177.76   158.81   102.45    86.66   276.70   110.00
43.94  11.067725   190.36   576.76   201.15   177.75   158.81   102.45    86.65   276.69   109.99
46.33  11.067761   190.34   576.71   201.14   177.74   158.80   102.45    86.65   276.68   109.99
48.78  11.067802   190.33   576.66   201.12   177.72   158.80   102.45    86.65   276.67   109.99
51.3  11.067849   190.31   576.60   201.11   177.71   158.80   102.44    86.64   276.65   109.98
53.88  11.067903   190.28   576.53   201.09   177.69   158.80   102.44    86.64   276.63   109.98
56.53  11.067964   190.26   576.46   201.07   177.68   158.79   102.44    86.63   276.62   109.97
59.24  11.068032   190.24   576.38   201.05   177.66   158.79   102.43    86.63   276.60   109.96
62.01  11.068108   190.21   576.30   201.03   177.64   158.78   102.43    86.62   276.58   109.96
64.84  11.068191   190.18   576.22   201.00   177.62   158.78   102.42    86.62   276.55   109.95
67.74  11.068284   190.15   576.13   200.98   177.60   158.77   102.42    86.61   276.53   109.94
70.7  11.068386   190.12   576.03   200.95   177.58   158.77   102.41    86.60   276.51   109.93
73.72  11.068498   190.09   575.93   200.92   177.56   158.76   102.41    86.60   276.48   109.92
76.81  11.068620   190.06   575.82   200.89   177.54   158.75   102.40    86.59   276.45   109.91
79.96  11.068752   190.02   575.71   200.86   177.52   158.74   102.39    86.58   276.42   109.90
83.18  11.068897   189.98   575.59   200.83   177.49   158.73   102.38    86.57   276.39   109.89
86.45  11.069052   189.94   575.47   200.80   177.47   158.72   102.37    86.56   276.36   109.88
89.79  11.069220   189.90   575.34   200.76   177.44   158.71   102.36    86.55   276.32   109.87
93.2  11.069402   189.86   575.21   200.73   177.42   158.70   102.35    86.54   276.28   109.86
96.66  11.069597   189.82   575.07   200.69   177.39   158.69   102.34    86.53   276.25   109.84
100.2  11.069806   189.77   574.93   200.65   177.36   158.68   102.33    86.52   276.21   109.83
103.79  11.070030   189.72   574.78   200.61   177.34   158.66   102.31    86.51   276.16   109.82
107.45  11.070269   189.68   574.63   200.57   177.31   158.65   102.30    86.50   276.12   109.80
111.17  11.070523   189.62   574.47   200.53   177.28   158.63   102.29    86.49   276.07   109.78
114.95  11.070794   189.57   574.31   200.49   177.25   158.62   102.27    86.47   276.03   109.77
118.8  11.071082   189.52   574.14   200.44   177.22   158.60   102.25    86.46   275.98   109.75
122.71  11.071387   189.46   573.96   200.40   177.19   158.58   102.23    86.45   275.93   109.73
126.68  11.071710   189.41   573.78   200.35   177.16   158.56   102.22    86.43   275.87   109.71
130.72  11.072052   189.35   573.60   200.30   177.13   158.54   102.19    86.42   275.82   109.69
134.82  11.072412   189.29   573.41   200.25   177.10   158.52   102.17    86.40   275.76   109.67
138.98  11.072791   189.23   573.21   200.20   177.07   158.49   102.15    86.38   275.70   109.65
143.21  11.073191   189.16   573.01   200.14   177.04   158.47   102.13    86.37   275.64   109.63
147.5  11.073610   189.10   572.80   200.09   177.01   158.44   102.10    86.35   275.58   109.61
151.85  11.074049   189.03   572.59   200.03   176.98   158.41   102.08    86.33   275.51   109.58
156.27  11.074510   188.96   572.37   199.97   176.95   158.39   102.05    86.31   275.44   109.56
160.75  11.074992   188.89   572.15   199.91   176.92   158.36   102.02    86.29   275.37   109.53
165.29  11.075495   188.82   571.92   199.85   176.88   158.32   101.99    86.27   275.30   109.51
169.9  11.076020   188.75   571.69   199.79   176.85   158.29   101.96    86.25   275.22   109.48
174.57  11.076568   188.67   571.45   199.73   176.82   158.26   101.93    86.23   275.15   109.45
179.3  11.077137   188.60   571.20   199.66   176.79   158.22   101.89    86.21   275.07   109.42
184.1  11.077730   188.52   570.95   199.60   176.76   158.18   101.86    86.18   274.99   109.39
188.96  11.078345   188.44   570.69   199.53   176.72   158.15   101.82    86.16   274.90   109.36
193.88  11.078983   188.36   570.43   199.46   176.69   158.11   101.78    86.13   274.82   109.33
198.86  11.079644   188.27   570.16   199.39   176.66   158.06   101.75    86.11   274.73   109.30
203.91  11.080329   188.19   569.89   199.31   176.63   158.02   101.70    86.08   274.64   109.26
209.03  11.081038   188.10   569.61   199.24   176.59   157.98   101.66    86.06   274.54   109.23
214.2  11.081770   188.01   569.32   199.16   176.56   157.93   101.62    86.03   274.45   109.19
219.44  11.082526   187.92   569.03   199.09   176.53   157.88   101.57    86.00   274.35   109.16
224.74  11.083305   187.83   568.73   199.01   176.50   157.83   101.53    85.97   274.25   109.12
230.11  11.084110   187.74   568.43   198.93   176.46   157.78   101.48    85.94   274.15   109.08
235.54  11.084938   187.64   568.12   198.84   176.43   157.73   101.43    85.91   274.04   109.04
241.03  11.085790   187.54   567.81   198.76   176.40   157.68   101.38    85.88   273.93   109.00
246.59  11.086667   187.45   567.49   198.67   176.37   157.62   101.33    85.85   273.82   108.96
252.21  11.087567   187.35   567.17   198.59   176.33   157.57   101.28    85.82   273.71   108.92
257.89  11.088492   187.24   566.84   198.50   176.30   157.51   101.22    85.79   273.60   108.87
263.63  11.089440   187.14   566.50   198.41   176.27   157.45   101.17    85.75   273.48   108.83
269.44  11.090414   187.03   566.16   198.31   176.24   157.39   101.11    85.72   273.36   108.79
275.32  11.091413   186.93   565.82   198.22   176.20   157.32   101.05    85.68   273.23   108.74
281.25  11.092434   186.82   565.46   198.12   176.17   157.26   100.99    85.64   273.11   108.69
287.25  11.093481   186.71   565.11   198.03   176.14   157.19   100.93    85.61   272.98   108.64
293.31  11.094551   186.60   564.74   197.93   176.11   157.12   100.86    85.57   272.85   108.59
299.44  11.095647   186.48   564.38   197.83   176.07   157.05   100.80    85.53   272.72   108.54
305.63  11.096767   186.37   564.00   197.72   176.04   156.98   100.73    85.49   272.59   108.49
311.88  11.097910   186.25   563.62   197.62   176.01   156.91   100.67    85.45   272.45   108.44
318.19  11.099077   186.13   563.24   197.51   175.98   156.83   100.60    85.41   272.31   108.39
324.57  11.100269   186.01   562.85   197.40   175.94   156.76   100.53    85.37   272.17   108.33
331.01  11.101485   185.89   562.45   197.29   175.91   156.68   100.46    85.32   272.02   108.28
337.52  11.102727   185.76   562.05   197.18   175.88   156.60   100.38    85.28   271.87   108.22
344.09  11.103992   185.64   561.64   197.07   175.85   156.52   100.31    85.24   271.72   108.17
350.72  11.105280   185.51   561.23   196.95   175.81   156.44   100.23    85.19   271.57   108.11
357.41  11.106592   185.38   560.81   196.83   175.78   156.35   100.16    85.14   271.42   108.05
364.17  11.107929   185.25   560.39   196.71   175.75   156.27   100.08    85.10   271.26   107.99
370.99  11.109290   185.12   559.96   196.59   175.71   156.18   100.00    85.05   271.10   107.93
377.88  11.110676   184.98   559.53   196.46   175.68   156.09    99.92    85.00   270.94   107.87
384.82  11.112084   184.85   559.09   196.34   175.65   156.00    99.83    84.95   270.77   107.80
391.84  11.113518   184.71   558.64   196.21   175.61   155.91    99.75    84.90   270.60   107.74
398.91  11.114974   184.57   558.19   196.08   175.58   155.81    99.66    84.85   270.43   107.67
406.05  11.116456   184.43   557.73   195.94   175.54   155.71    99.58    84.80   270.26   107.61
413.25  11.117960   184.29   557.27   195.81   175.51   155.62    99.49    84.74   270.08   107.54
420.51  11.119488   184.14   556.80   195.67   175.48   155.52    99.40    84.69   269.90   107.47
427.84  11.121042   183.99   556.33   195.53   175.44   155.42    99.31    84.63   269.72   107.40
435.23  11.122618   183.85   555.85   195.39   175.41   155.31    99.21    84.58   269.54   107.33
442.69  11.124220   183.70   555.36   195.25   175.37   155.21    99.12    84.52   269.35   107.26
450.21  11.125845   183.54   554.87   195.10   175.34   155.10    99.03    84.46   269.16   107.19
457.79  11.127493   183.39   554.38   194.95   175.30   154.99    98.93    84.41   268.97   107.11
465.43  11.129165   183.23   553.88   194.80   175.27   154.88    98.83    84.35   268.78   107.04
473.14  11.130862   183.08   553.37   194.65   175.23   154.77    98.73    84.29   268.58   106.96
480.91  11.132582   182.92   552.85   194.49   175.19   154.66    98.63    84.22   268.38   106.89
488.74  11.134325   182.76   552.34   194.33   175.16   154.54    98.53    84.16   268.18   106.81
496.64  11.136094   182.59   551.81   194.17   175.12   154.43    98.43    84.10   267.97   106.73
504.6  11.137887   182.43   551.28   194.01   175.08   154.31    98.32    84.03   267.77   106.65
512.62  11.139702   182.26   550.74   193.85   175.05   154.19    98.22    83.97   267.55   106.57
520.71  11.141543   182.09   550.20   193.68   175.01   154.07    98.11    83.90   267.34   106.48
528.86  11.143408   181.92   549.65   193.51   174.97   153.94    98.00    83.83   267.12   106.40
537.08  11.145298   181.75   549.10   193.33   174.93   153.82    97.89    83.77   266.91   106.32
545.35  11.147210   181.58   548.54   193.16   174.90   153.69    97.78    83.70   266.68   106.23
553.69  11.149147   181.40   547.97   192.98   174.86   153.56    97.66    83.63   266.46   106.14
562.1  11.151110   181.22   547.40   192.80   174.82   153.43    97.55    83.55   266.23   106.05
570.56  11.153094   181.04   546.82   192.61   174.78   153.30    97.43    83.48   266.00   105.97
579.09  11.155105   180.86   546.24   192.43   174.74   153.16    97.32    83.41   265.77   105.88
587.69  11.157141   180.67   545.65   192.24   174.70   153.03    97.20    83.33   265.53   105.78
596.34  11.159199   180.49   545.05   192.05   174.65   152.89    97.08    83.26   265.29   105.69
605.06  11.161284   180.30   544.45   191.85   174.61   152.75    96.96    83.18   265.05   105.60
613.85  11.163394   180.11   543.84   191.65   174.57   152.60    96.83    83.10   264.80   105.50
622.69  11.165526   179.92   543.23   191.45   174.53   152.46    96.71    83.02   264.55   105.41
631.6  11.167685   179.72   542.61   191.25   174.49   152.31    96.58    82.94   264.30   105.31
640.58  11.169870   179.53   541.98   191.04   174.44   152.17    96.46    82.86   264.05   105.21
649.61  11.172077   179.33   541.35   190.83   174.40   152.02    96.33    82.78   263.79   105.11
658.71  11.174311   179.13   540.71   190.62   174.35   151.86    96.20    82.70   263.53   105.01
667.88  11.176572   178.92   540.06   190.40   174.31   151.71    96.07    82.61   263.26   104.90
677.1  11.178855   178.72   539.41   190.19   174.26   151.56    95.93    82.52   263.00   104.80
686.39  11.181165   178.51   538.75   189.97   174.22   151.40    95.80    82.44   262.73   104.70
695.75  11.183503   178.30   538.09   189.74   174.17   151.24    95.66    82.35   262.45   104.59
705.16  11.185863   178.09   537.42   189.51   174.12   151.08    95.53    82.26   262.17   104.48
714.64  11.188250   177.88   536.74   189.28   174.07   150.91    95.39    82.17   261.89   104.37
724.19  11.190665   177.66   536.06   189.05   174.02   150.75    95.25    82.08   261.61   104.26
733.79  11.193103   177.45   535.37   188.81   173.97   150.58    95.11    81.99   261.32   104.15
743.46  11.195568   177.23   534.67   188.57   173.92   150.41    94.96    81.89   261.03   104.04
753.19  11.198059   177.00   533.97   188.33   173.87   150.24    94.82    81.80   260.74   103.92
762.99  11.200579   176.78   533.26   188.08   173.82   150.06    94.67    81.70   260.44   103.81
772.85  11.203124   176.55   532.54   187.83   173.77   149.89    94.52    81.60   260.14   103.69
782.77  11.205696   176.32   531.81   187.58   173.71   149.71    94.37    81.50   259.84   103.57
792.76  11.208295   176.09   531.08   187.32   173.66   149.53    94.22    81.40   259.53   103.45
802.81  11.210922   175.86   530.35   187.06   173.61   149.35    94.07    81.30   259.22   103.33
812.92  11.213575   175.62   529.60   186.79   173.55   149.16    93.92    81.20   258.91   103.21
823.09  11.216254   175.38   528.85   186.53   173.49   148.97    93.76    81.09   258.59   103.09
833.33  11.218963   175.14   528.09   186.26   173.44   148.78    93.60    80.99   258.27   102.96
843.64  11.221701   174.90   527.33   185.98   173.38   148.59    93.45    80.88   257.95   102.83
854.0  11.224464   174.65   526.55   185.70   173.32   148.40    93.29    80.77   257.62   102.71
864.43  11.227257   174.41   525.78   185.42   173.26   148.20    93.12    80.66   257.29   102.58
874.92  11.230077   174.16   524.99   185.14   173.20   148.01    92.96    80.55   256.95   102.45
885.48  11.232928   173.90   524.20   184.85   173.13   147.80    92.79    80.44   256.61   102.31
896.1  11.235807   173.65   523.39   184.56   173.07   147.60    92.63    80.33   256.27   102.18
906.78  11.238714   173.39   522.59   184.26   173.01   147.40    92.46    80.21   255.92   102.04
917.52  11.241649   173.13   521.77   183.96   172.94   147.19    92.29    80.09   255.57   101.91
928.33  11.244616   172.87   520.95   183.66   172.87   146.98    92.12    79.98   255.22   101.77
939.2  11.247611   172.60   520.12   183.35   172.81   146.77    91.94    79.86   254.86   101.63
950.14  11.250638   172.33   519.28   183.04   172.74   146.55    91.77    79.74   254.50   101.49
961.14  11.253694   172.06   518.43   182.73   172.67   146.34    91.59    79.62   254.13   101.34
972.2  11.256780   171.79   517.58   182.41   172.60   146.12    91.41    79.49   253.76   101.20
983.32  11.259896   171.51   516.72   182.09   172.52   145.89    91.23    79.37   253.39   101.05
994.51  11.263044   171.23   515.85   181.77   172.45   145.67    91.05    79.24   253.01   100.90
1005.76  11.266223   170.95   514.98   181.44   172.38   145.44    90.86    79.11   252.63   100.75
1017.08  11.269434   170.67   514.09   181.11   172.30   145.21    90.67    78.98   252.24   100.60
1028.46  11.272677   170.38   513.20   180.77   172.22   144.98    90.49    78.85   251.85   100.45
1039.9  11.275951   170.09   512.30   180.43   172.14   144.75    90.30    78.72   251.46   100.29
1051.4  11.279256   169.80   511.39   180.08   172.06   144.51    90.10    78.59   251.06   100.14
1062.97  11.282595   169.51   510.48   179.74   171.98   144.27    89.91    78.45   250.66    99.98
1074.6  11.285967   169.21   509.56   179.38   171.90   144.03    89.71    78.32   250.25    99.82
1086.3  11.289373   168.91   508.62   179.03   171.81   143.78    89.51    78.18   249.84    99.66
1098.06  11.292812   168.60   507.68   178.67   171.73   143.53    89.31    78.04   249.42    99.50
1109.88  11.296284   168.30   506.73   178.31   171.64   143.28    89.11    77.90   249.00    99.33
1121.76  11.299789   167.99   505.78   177.94   171.55   143.03    88.91    77.76   248.58    99.16
1133.71  11.303330   167.68   504.81   177.57   171.46   142.77    88.70    77.61   248.15    99.00
1145.72  11.306905   167.36   503.84   177.19   171.37   142.51    88.49    77.47   247.72    98.83
1157.79  11.310514   167.04   502.86   176.81   171.27   142.25    88.28    77.32   247.28    98.65
1169.93  11.314161   166.72   501.87   176.43   171.17   141.99    88.07    77.17   246.84    98.48
1182.13  11.317842   166.40   500.87   176.05   171.07   141.72    87.85    77.02   246.39    98.30
1194.4  11.321562   166.07   499.86   175.66   170.97   141.45    87.63    76.87   245.94    98.13
1206.72  11.325314   165.74   498.84   175.26   170.87   141.18    87.41    76.72   245.48    97.95
1219.12  11.329108   165.41   497.82   174.86   170.76   140.90    87.19    76.56   245.02    97.76
1231.57  11.332936   165.07   496.78   174.46   170.66   140.62    86.97    76.41   244.55    97.58
1244.09  11.336803   164.73   495.74   174.06   170.55   140.34    86.74    76.25   244.08    97.40
1256.67  11.340707   164.39   494.69   173.65   170.43   140.06    86.51    76.09   243.61    97.21
1269.31  11.344649   164.04   493.62   173.24   170.32   139.77    86.28    75.93   243.13    97.02
1282.02  11.348632   163.70   492.55   172.83   170.20   139.48    86.05    75.76   242.64    96.83
1294.79  11.352653   163.34   491.47   172.41   170.08   139.18    85.81    75.60   242.15    96.63
1307.62  11.356714   162.99   490.38   171.99   169.95   138.89    85.57    75.43   241.65    96.44
1320.52  11.360816   162.63   489.28   171.57   169.82   138.59    85.33    75.27   241.15    96.24
1333.48  11.364959   162.27   488.18   171.15   169.68   138.28    85.08    75.10   240.65    96.04
1346.5  11.369141   161.90   487.06   170.74   169.53   137.98    84.84    74.93   240.14    95.84
1359.59  11.373368   161.53   485.93   170.34   169.36   137.67    84.59    74.76   239.62    95.64
1372.74  11.377635   161.16   484.79   169.96   169.16   137.35    84.33    74.58   239.10    95.43
1385.95  11.381945   160.78   483.64   169.63   168.91   137.04    84.08    74.41   238.57    95.22
1399.23  11.386300   160.40   482.49   169.36   168.59   136.72    83.82    74.23   238.04    95.01
1412.57  11.390697   160.02   481.32   169.15   168.21   136.39    83.56    74.05   237.50    94.80
1425.98  11.395141   159.63   480.14   168.96   167.79   136.07    83.29    73.87   236.96    94.59
1439.44  11.399626   159.24   478.95   168.79   167.35   135.74    83.03    73.69   236.41    94.37
1452.97  11.404158   158.85   477.75   168.62   166.90   135.41    82.76    73.51   235.85    94.15
1466.56  11.408735   158.45   476.54   168.46   166.45   135.07    82.48    73.33   235.29    93.93
1480.22  11.413362   158.05   475.32   168.29   165.98   134.73    82.20    73.14   234.73    93.70
1493.94  11.418034   157.65   474.09   168.13   165.51   134.39    81.92    72.95   234.15    93.48
1507.72  11.422753   157.24   472.85   167.96   165.04   134.04    81.64    72.76   233.58    93.25
1521.57  11.427523   156.83   471.60   167.79   164.56   133.69    81.35    72.57   232.99    93.02
1535.48  11.432341   156.41   470.34   167.62   164.07   133.34    81.06    72.38   232.41    92.79
1549.45  11.437207   155.99   469.07   167.44   163.59   132.98    80.77    72.19   231.81    92.55
1563.49  11.442127   155.57   467.78   167.26   163.10   132.62    80.47    72.00   231.21    92.31
1577.59  11.447096   155.14   466.49   167.08   162.60   132.25    80.17    71.80   230.60    92.07
1591.75  11.452116   154.71   465.18   166.89   162.11   131.89    79.87    71.60   229.99    91.83
1605.98  11.457192   154.27   463.86   166.70   161.61   131.52    79.56    71.41   229.37    91.59
1620.27  11.462319   153.83   462.53   166.51   161.10   131.14    79.25    71.21   228.74    91.34
1634.62  11.467500   153.39   461.19   166.31   160.60   130.76    78.93    71.01   228.11    91.09
1649.04  11.472738   152.94   459.84   166.10   160.09   130.38    78.61    70.80   227.47    90.84
1663.52  11.478030   152.49   458.47   165.89   159.58   129.99    78.29    70.60   226.83    90.58
1678.06  11.483378   152.03   457.10   165.68   159.07   129.60    77.96    70.40   226.18    90.32
1692.66  11.488782   151.57   455.71   165.46   158.56   129.21    77.62    70.19   225.52    90.06
1707.33  11.494247   151.10   454.31   165.23   158.05   128.81    77.29    69.98   224.86    89.80
1722.07  11.499773   150.63   452.90   165.00   157.53   128.41    76.95    69.78   224.19    89.53
1736.86  11.505355   150.16   451.47   164.77   157.01   128.00    76.60    69.57   223.51    89.27
1751.72  11.511000   149.68   450.04   164.53   156.49   127.59    76.25    69.36   222.82    89.00
1766.64  11.516706   149.20   448.59   164.28   155.97   127.18    75.89    69.15   222.13    88.72
1781.63  11.522477   148.71   447.12   164.03   155.45   126.76    75.53    68.93   221.44    88.45
1796.68  11.528311   148.22   445.65   163.77   154.93   126.34    75.17    68.72   220.73    88.17
1811.79  11.534209   147.72   444.16   163.50   154.41   125.92    74.80    68.51   220.02    87.88
1826.96  11.540171   147.22   442.66   163.23   153.89   125.49    74.42    68.30   219.30    87.60
1842.2  11.546204   146.72   441.15   162.95   153.37   125.05    74.04    68.08   218.58    87.31
1857.51  11.552307   146.21   439.62   162.66   152.85   124.62    73.65    67.87   217.85    87.02
1872.87  11.558474   145.69   438.08   162.36   152.33   124.18    73.26    67.65   217.11    86.73
1888.3  11.564715   145.17   436.53   162.06   151.81   123.73    72.86    67.43   216.36    86.43
1903.79  11.571026   144.65   434.96   161.75   151.29   123.28    72.46    67.22   215.61    86.14
1919.35  11.577413   144.12   433.38   161.43   150.78   122.83    72.05    67.00   214.85    85.83
1934.96  11.583868   143.58   431.78   161.10   150.26   122.37    71.63    66.78   214.08    85.53
1950.65  11.590406   143.04   430.18   160.76   149.75   121.91    71.21    66.57   213.30    85.22
1966.39  11.597016   142.50   428.55   160.41   149.25   121.45    70.78    66.35   212.52    84.91
1982.2  11.603707   141.95   426.92   160.06   148.74   120.98    70.35    66.13   211.73    84.60
1998.07  11.610476   141.39   425.27   159.69   148.24   120.50    69.90    65.91   210.93    84.28
2014.01  11.617329   140.83   423.61   159.31   147.75   120.03    69.46    65.70   210.13    83.96
2030.0  11.624259   140.26   421.93   158.92   147.25   119.54    69.00    65.48   209.32    83.64
2046.07  11.631281   139.69   420.24   158.52   146.77   119.06    68.54    65.26   208.50    83.32
2062.19  11.638383   139.11   418.53   158.11   146.29   118.57    68.07    65.05   207.67    82.99
2078.38  11.645575   138.53   416.81   157.68   145.81   118.08    67.59    64.83   206.83    82.66
2094.63  11.652855   137.94   415.08   157.25   145.34   117.58    67.10    64.62   205.99    82.32
