# T(K) V(Ang^3) B(GPa) C11 C12 C44 E(GPa) G(GPa) B_correction_factor
0.0   9.160873   168.85   316.74    94.90   147.33   315.58   132.76     1.06
0.17   9.160873   168.85   316.74    94.90   147.33   315.58   132.76     1.06
0.43   9.160873   168.85   316.74    94.90   147.33   315.58   132.76     1.06
0.78   9.160873   168.85   316.74    94.90   147.33   315.58   132.76     1.06
1.23   9.160873   168.85   316.74    94.90   147.33   315.58   132.76     1.06
1.78   9.160873   168.85   316.74    94.90   147.33   315.58   132.76     1.06
2.41   9.160873   168.85   316.74    94.90   147.33   315.58   132.76     1.06
3.14   9.160873   168.85   316.74    94.90   147.33   315.58   132.76     1.06
3.97   9.160873   168.85   316.74    94.90   147.33   315.58   132.76     1.06
4.88   9.160873   168.85   316.74    94.90   147.33   315.58   132.76     1.06
5.9   9.160873   168.85   316.74    94.90   147.33   315.58   132.76     1.06
7.0   9.160873   168.85   316.74    94.90   147.33   315.58   132.76     1.06
8.2   9.160873   168.85   316.74    94.90   147.33   315.58   132.76     1.06
9.49   9.160873   168.85   316.74    94.90   147.33   315.58   132.76     1.06
10.88   9.160873   168.85   316.74    94.90   147.33   315.58   132.76     1.06
12.36   9.160873   168.85   316.74    94.90   147.33   315.58   132.76     1.06
13.94   9.160874   168.85   316.74    94.90   147.33   315.58   132.76     1.06
15.61   9.160874   168.85   316.74    94.90   147.33   315.58   132.76     1.06
17.37   9.160874   168.85   316.74    94.90   147.33   315.58   132.76     1.06
19.22   9.160874   168.85   316.74    94.90   147.33   315.58   132.76     1.06
21.17   9.160875   168.85   316.74    94.90   147.33   315.58   132.76     1.06
23.22   9.160876   168.85   316.74    94.90   147.33   315.58   132.76     1.06
25.36   9.160877   168.85   316.74    94.90   147.33   315.58   132.76     1.06
27.59   9.160879   168.85   316.74    94.90   147.33   315.58   132.76     1.06
29.91   9.160881   168.85   316.74    94.90   147.33   315.58   132.76     1.06
32.33   9.160884   168.85   316.74    94.90   147.33   315.58   132.76     1.06
34.84   9.160889   168.85   316.74    94.91   147.33   315.58   132.76     1.06
37.45   9.160895   168.85   316.74    94.91   147.33   315.58   132.76     1.06
40.15   9.160903   168.85   316.74    94.91   147.33   315.58   132.76     1.06
42.95   9.160914   168.85   316.73    94.91   147.33   315.57   132.76     1.06
45.83   9.160929   168.85   316.73    94.91   147.33   315.57   132.76     1.06
48.82   9.160948   168.85   316.73    94.91   147.33   315.57   132.76     1.06
51.89   9.160974   168.85   316.72    94.91   147.32   315.56   132.76     1.06
55.06   9.161007   168.85   316.71    94.91   147.32   315.56   132.75     1.06
58.32   9.161049   168.85   316.70    94.92   147.32   315.55   132.75     1.06
61.68   9.161103   168.84   316.69    94.92   147.32   315.54   132.75     1.06
65.13   9.161170   168.84   316.68    94.92   147.32   315.53   132.74     1.06
68.68   9.161252   168.84   316.66    94.93   147.31   315.52   132.74     1.06
72.32   9.161352   168.84   316.64    94.93   147.31   315.51   132.73     1.06
76.05   9.161473   168.83   316.62    94.94   147.31   315.49   132.72     1.06
79.87   9.161617   168.83   316.59    94.95   147.30   315.47   132.71     1.06
83.79   9.161787   168.82   316.56    94.96   147.29   315.44   132.70     1.06
87.81   9.161987   168.82   316.52    94.97   147.29   315.41   132.68     1.06
91.92   9.162219   168.81   316.47    94.98   147.28   315.38   132.67     1.06
96.12   9.162486   168.80   316.42    94.99   147.27   315.34   132.65     1.06
100.41   9.162790   168.79   316.37    95.00   147.26   315.30   132.63     1.06
104.8   9.163136   168.78   316.31    95.02   147.25   315.26   132.61     1.06
109.28   9.163524   168.77   316.24    95.03   147.23   315.20   132.58     1.06
113.86   9.163960   168.76   316.17    95.05   147.22   315.15   132.55     1.06
118.53   9.164444   168.74   316.09    95.07   147.20   315.08   132.52     1.06
123.3   9.164979   168.73   316.00    95.09   147.18   315.01   132.49     1.06
128.15   9.165567   168.71   315.90    95.11   147.16   314.94   132.45     1.06
133.11   9.166212   168.69   315.80    95.13   147.13   314.86   132.41     1.06
138.15   9.166912   168.67   315.69    95.15   147.11   314.77   132.37     1.06
143.29   9.167672   168.64   315.58    95.18   147.08   314.68   132.33     1.06
148.53   9.168494   168.62   315.45    95.20   147.05   314.58   132.28     1.06
153.85   9.169376   168.60   315.33    95.23   147.02   314.48   132.23     1.06
159.27   9.170321   168.57   315.19    95.26   146.99   314.37   132.18     1.06
164.79   9.171332   168.54   315.04    95.29   146.95   314.25   132.12     1.06
170.4   9.172408   168.51   314.89    95.31   146.91   314.12   132.06     1.06
176.1   9.173548   168.48   314.74    95.34   146.87   313.99   132.00     1.06
181.9   9.174757   168.44   314.57    95.38   146.82   313.86   131.93     1.06
187.79   9.176031   168.41   314.40    95.41   146.78   313.72   131.87     1.06
193.77   9.177372   168.37   314.23    95.44   146.73   313.57   131.80     1.06
199.85   9.178781   168.33   314.04    95.47   146.68   313.41   131.72     1.06
206.02   9.180258   168.29   313.85    95.51   146.63   313.25   131.64     1.06
212.29   9.181804   168.25   313.66    95.54   146.57   313.09   131.56     1.06
218.65   9.183417   168.21   313.46    95.58   146.51   312.91   131.48     1.06
225.1   9.185096   168.16   313.25    95.62   146.45   312.74   131.40     1.06
231.65   9.186845   168.11   313.04    95.65   146.39   312.55   131.31     1.06
238.29   9.188660   168.07   312.82    95.69   146.32   312.36   131.22     1.06
245.02   9.190541   168.02   312.59    95.73   146.25   312.17   131.13     1.06
251.85   9.192491   167.97   312.36    95.77   146.18   311.97   131.03     1.06
258.77   9.194506   167.92   312.13    95.81   146.11   311.76   130.93     1.07
265.79   9.196589   167.87   311.89    95.85   146.04   311.55   130.83     1.07
272.9   9.198737   167.81   311.64    95.90   145.96   311.33   130.72     1.07
280.1   9.200950   167.76   311.39    95.94   145.88   311.11   130.62     1.07
287.4   9.203230   167.70   311.13    95.99   145.80   310.88   130.51     1.07
294.79   9.205573   167.65   310.87    96.03   145.71   310.65   130.40     1.07
302.27   9.207979   167.59   310.61    96.08   145.63   310.41   130.28     1.07
309.85   9.210451   167.53   310.33    96.13   145.54   310.17   130.17     1.07
317.53   9.212989   167.47   310.06    96.18   145.45   309.92   130.05     1.07
325.29   9.215585   167.41   309.78    96.23   145.36   309.66   129.92     1.07
333.15   9.218246   167.35   309.49    96.28   145.26   309.40   129.80     1.07
341.11   9.220972   167.29   309.20    96.33   145.16   309.14   129.67     1.07
349.15   9.223754   167.23   308.90    96.39   145.06   308.87   129.54     1.07
357.3   9.226604   167.16   308.60    96.44   144.96   308.59   129.41     1.07
365.53   9.229510   167.10   308.29    96.50   144.86   308.31   129.27     1.07
373.86   9.232479   167.03   307.98    96.56   144.75   308.03   129.14     1.07
382.28   9.235507   166.97   307.66    96.62   144.65   307.74   129.00     1.08
390.8   9.238598   166.90   307.34    96.69   144.54   307.44   128.85     1.08
399.41   9.241746   166.84   307.01    96.75   144.43   307.14   128.71     1.08
408.12   9.244956   166.77   306.68    96.82   144.31   306.83   128.56     1.08
416.92   9.248224   166.71   306.34    96.89   144.20   306.52   128.41     1.08
425.81   9.251550   166.64   305.99    96.96   144.08   306.21   128.25     1.08
434.79   9.254932   166.57   305.64    97.04   143.96   305.88   128.10     1.08
443.87   9.258375   166.51   305.29    97.12   143.84   305.56   127.94     1.08
453.05   9.261877   166.44   304.93    97.20   143.72   305.22   127.78     1.08
462.32   9.265436   166.37   304.56    97.28   143.59   304.88   127.61     1.08
471.68   9.269051   166.30   304.18    97.36   143.47   304.54   127.44     1.08
481.13   9.272722   166.24   303.80    97.45   143.34   304.19   127.27     1.09
490.68   9.276452   166.17   303.42    97.55   143.21   303.83   127.10     1.09
500.32   9.280237   166.10   303.02    97.64   143.08   303.47   126.92     1.09
510.06   9.284080   166.03   302.62    97.74   142.94   303.11   126.74     1.09
519.89   9.287979   165.97   302.22    97.84   142.81   302.73   126.56     1.09
529.81   9.291932   165.90   301.80    97.95   142.67   302.35   126.37     1.09
539.83   9.295943   165.83   301.38    98.06   142.54   301.96   126.18     1.09
549.94   9.300008   165.77   300.95    98.18   142.40   301.57   125.99     1.09
560.15   9.304132   165.70   300.51    98.30   142.25   301.17   125.80     1.09
570.45   9.308309   165.63   300.06    98.42   142.11   300.77   125.60     1.09
580.84   9.312540   165.57   299.61    98.55   141.97   300.35   125.39     1.09
591.33   9.316828   165.50   299.14    98.68   141.82   299.93   125.18     1.10
601.91   9.321169   165.44   298.67    98.82   141.67   299.50   124.97     1.10
612.59   9.325568   165.37   298.19    98.97   141.52   299.07   124.76     1.10
623.35   9.330016   165.31   297.70    99.12   141.37   298.63   124.54     1.10
634.22   9.334525   165.25   297.20    99.27   141.22   298.18   124.32     1.10
645.17   9.339082   165.19   296.69    99.43   141.07   297.72   124.09     1.10
656.22   9.343696   165.12   296.17    99.60   140.91   297.26   123.86     1.10
667.37   9.348367   165.06   295.64    99.77   140.76   296.79   123.63     1.10
678.6   9.353086   165.00   295.11    99.95   140.60   296.31   123.39     1.10
689.94   9.357866   164.94   294.56   100.13   140.44   295.83   123.15     1.10
701.36   9.362694   164.88   294.01   100.32   140.28   295.34   122.91     1.10
712.88   9.367578   164.82   293.45   100.51   140.12   294.84   122.66     1.10
724.49   9.372515   164.77   292.88   100.71   139.96   294.33   122.41     1.10
736.2   9.377507   164.71   292.30   100.92   139.79   293.82   122.15     1.10
748.0   9.382551   164.65   291.71   101.13   139.63   293.30   121.89     1.10
759.9   9.387652   164.60   291.11   101.34   139.46   292.77   121.63     1.10
771.88   9.392799   164.55   290.51   101.56   139.29   292.24   121.36     1.10
783.97   9.398007   164.49   289.89   101.79   139.12   291.70   121.09     1.10
796.14   9.403262   164.44   289.27   102.02   138.95   291.16   120.82     1.10
808.41   9.408573   164.39   288.65   102.26   138.78   290.60   120.54     1.10
820.77   9.413935   164.34   288.01   102.51   138.61   290.04   120.26     1.10
833.23   9.419352   164.29   287.37   102.76   138.43   289.48   119.98     1.10
845.78   9.424821   164.25   286.72   103.01   138.26   288.90   119.70     1.10
858.43   9.430345   164.20   286.06   103.27   138.08   288.33   119.41     1.10
871.17   9.435920   164.16   285.39   103.54   137.90   287.74   119.11     1.10
884.0   9.441546   164.11   284.72   103.81   137.72   287.15   118.82     1.10
896.93   9.447227   164.07   284.05   104.08   137.54   286.55   118.52     1.10
909.95   9.452959   164.03   283.36   104.36   137.36   285.95   118.22     1.10
923.06   9.458742   163.99   282.68   104.65   137.18   285.35   117.91     1.10
936.27   9.464580   163.95   281.98   104.94   136.99   284.73   117.60     1.10
949.57   9.470468   163.92   281.28   105.24   136.81   284.11   117.29     1.10
962.96   9.476406   163.88   280.58   105.54   136.62   283.49   116.98     1.10
976.45   9.482399   163.85   279.87   105.84   136.43   282.86   116.67     1.10
990.04   9.488447   163.82   279.16   106.15   136.24   282.23   116.35     1.10
1003.71   9.494541   163.79   278.44   106.47   136.05   281.59   116.03     1.10
1017.48   9.500689   163.76   277.72   106.78   135.86   280.95   115.71     1.10
1031.35   9.506891   163.74   277.00   107.11   135.67   280.30   115.38     1.10
1045.31   9.513143   163.71   276.27   107.43   135.48   279.65   115.05     1.10
1059.36   9.519445   163.69   275.55   107.76   135.28   279.00   114.73     1.10
1073.5   9.525796   163.67   274.82   108.10   135.09   278.34   114.40     1.10
1087.74   9.532202   163.65   274.08   108.43   134.89   277.68   114.07     1.10
1102.08   9.538661   163.63   273.35   108.77   134.69   277.02   113.73     1.10
1116.51   9.545169   163.62   272.62   109.12   134.49   276.35   113.40     1.10
1131.03   9.551726   163.60   271.89   109.46   134.29   275.68   113.06     1.10
1145.64   9.558333   163.59   271.15   109.81   134.09   275.01   112.72     1.10
1160.35   9.564992   163.58   270.42   110.16   133.89   274.33   112.39     1.10
1175.15   9.571700   163.58   269.69   110.52   133.69   273.66   112.05     1.10
1190.05   9.578461   163.57   268.96   110.88   133.48   272.98   111.71     1.10
1205.04   9.585271   163.57   268.23   111.23   133.28   272.30   111.37     1.10
1220.12   9.592129   163.57   267.51   111.60   133.07   271.62   111.02     1.10
1235.3   9.599039   163.57   266.78   111.96   132.86   270.94   110.68     1.10
1250.57   9.605997   163.57   266.06   112.32   132.66   270.25   110.34     1.09
1265.94   9.613007   163.57   265.35   112.69   132.45   269.57   110.00     1.09
1281.4   9.620065   163.58   264.64   113.06   132.23   268.89   109.66     1.09
1296.95   9.627170   163.59   263.93   113.42   132.02   268.21   109.32     1.09
1312.6   9.634326   163.60   263.23   113.79   131.81   267.52   108.97     1.09
1328.34   9.641530   163.62   262.54   114.16   131.60   266.84   108.63     1.09
1344.17   9.648780   163.64   261.85   114.53   131.38   266.16   108.29     1.09
1360.1   9.656081   163.65   261.17   114.90   131.16   265.48   107.95     1.09
1376.12   9.663428   163.68   260.49   115.27   130.95   264.80   107.61     1.10
1392.24   9.670826   163.70   259.83   115.64   130.73   264.13   107.27     1.10
1408.45   9.678270   163.73   259.17   116.01   130.51   263.45   106.94     1.10
1424.75   9.685759   163.76   258.52   116.37   130.29   262.78   106.60     1.10
1441.15   9.693298   163.79   257.88   116.74   130.06   262.11   106.27     1.10
1457.64   9.700881   163.82   257.25   117.11   129.84   261.45   105.93     1.10
1474.23   9.708515   163.86   256.63   117.47   129.62   260.78   105.60     1.10
1490.91   9.716192   163.90   256.02   117.83   129.39   260.13   105.27     1.10
1507.68   9.723914   163.94   255.43   118.19   129.16   259.47   104.95     1.10
1524.55   9.731684   163.98   254.84   118.55   128.94   258.82   104.62     1.10
1541.51   9.739498   164.03   254.27   118.91   128.71   258.17   104.30     1.10
1558.56   9.747355   164.08   253.71   119.26   128.48   257.53   103.98     1.11
1575.71   9.755259   164.13   253.17   119.61   128.25   256.90   103.66     1.11
1592.95   9.763207   164.19   252.64   119.96   128.01   256.27   103.35     1.11
1610.29   9.771201   164.24   252.13   120.30   127.78   255.64   103.03     1.11
1627.72   9.779237   164.30   251.63   120.64   127.55   255.03   102.72     1.12
1645.24   9.787314   164.37   251.14   120.98   127.31   254.42   102.42     1.12
1662.86   9.795438   164.43   250.68   121.31   127.07   253.81   102.12     1.12
1680.57   9.803602   164.50   250.23   121.64   126.83   253.22   101.82     1.13
1698.37   9.811807   164.57   249.80   121.96   126.59   252.63   101.53     1.13
1716.27   9.820057   164.65   249.39   122.27   126.35   252.05   101.24     1.13
1734.26   9.828346   164.72   249.00   122.59   126.11   251.48   100.95     1.14
1752.35   9.836679   164.80   248.63   122.89   125.87   250.91   100.67     1.14
1770.53   9.845052   164.89   248.28   123.19   125.62   250.36   100.39     1.15
1788.8   9.853462   164.97   247.95   123.48   125.38   249.82   100.12     1.15
1807.17   9.861916   165.06   247.65   123.77   125.13   249.29    99.85     1.16
1825.63   9.870407   165.15   247.37   124.04   124.88   248.77    99.59     1.17
1844.19   9.878940   165.25   247.11   124.31   124.63   248.26    99.34     1.17
1862.84   9.887510   165.34   246.88   124.58   124.38   247.77    99.09     1.18
1881.58   9.896117   165.45   246.68   124.83   124.12   247.29    98.85     1.19
1900.42   9.904763   165.55   246.51   125.07   123.87   246.82    98.61     1.20
