# T(K)          a da/dT(-6/K)          b db/dT(-6/K)          c dc/dT(-6/K)
   0.0   3.569733   -0.030081   3.569733   -0.030081   3.569733   -0.030081
  10.0   3.569735    0.409009   3.569735    0.409009   3.569735    0.409009
  20.0   3.569806    4.158261   3.569806    4.158261   3.569806    4.158261
  30.0   3.570041    8.713478   3.570041    8.713478   3.570041    8.713478
  40.0   3.570408   11.573289   3.570408   11.573289   3.570408   11.573289
  50.0   3.570855   13.324408   3.570855   13.324408   3.570855   13.324408
  60.0   3.571352   14.429097   3.571352   14.429097   3.571352   14.429097
  70.0   3.571881   15.163611   3.571881   15.163611   3.571881   15.163611
  80.0   3.572432   15.679105   3.572432   15.679105   3.572432   15.679105
  90.0   3.572999   16.057022   3.572999   16.057022   3.572999   16.057022
 100.0   3.573579   16.345175   3.573579   16.345175   3.573579   16.345175
 110.0   3.574167   16.572664   3.574167   16.572664   3.574167   16.572664
 120.0   3.574763   16.757867   3.574763   16.757867   3.574763   16.757867
 130.0   3.575365   16.912795   3.575365   16.912795   3.575365   16.912795
 140.0   3.575972   17.045550   3.575972   17.045550   3.575972   17.045550
 150.0   3.576584   17.161742   3.576584   17.161742   3.576584   17.161742
 160.0   3.577199   17.265355   3.577199   17.265355   3.577199   17.265355
 170.0   3.577819   17.359275   3.577819   17.359275   3.577819   17.359275
 180.0   3.578441   17.445635   3.578441   17.445635   3.578441   17.445635
 190.0   3.579067   17.526040   3.579067   17.526040   3.579067   17.526040
 200.0   3.579696   17.601713   3.579696   17.601713   3.579696   17.601713
 210.0   3.580327   17.673602   3.580327   17.673602   3.580327   17.673602
 220.0   3.580961   17.742450   3.580961   17.742450   3.580961   17.742450
 230.0   3.581598   17.808845   3.581598   17.808845   3.581598   17.808845
 240.0   3.582237   17.873260   3.582237   17.873260   3.582237   17.873260
 250.0   3.582879   17.936078   3.582879   17.936078   3.582879   17.936078
 260.0   3.583522   17.997613   3.583522   17.997613   3.583522   17.997613
 270.0   3.584168   18.058123   3.584168   18.058123   3.584168   18.058123
 280.0   3.584817   18.117823   3.584817   18.117823   3.584817   18.117823
 290.0   3.585467   18.176893   3.585467   18.176893   3.585467   18.176893
 300.0   3.586120   18.235487   3.586120   18.235487   3.586120   18.235487
 310.0   3.586775   18.293734   3.586775   18.293734   3.586775   18.293734
 320.0   3.587433   18.351746   3.587433   18.351746   3.587433   18.351746
 330.0   3.588092   18.409619   3.588092   18.409619   3.588092   18.409619
 340.0   3.588754   18.467439   3.588754   18.467439   3.588754   18.467439
 350.0   3.589418   18.525278   3.589418   18.525278   3.589418   18.525278
 360.0   3.590084   18.583203   3.590084   18.583203   3.590084   18.583203
 370.0   3.590752   18.641270   3.590752   18.641270   3.590752   18.641270
 380.0   3.591422   18.699532   3.591422   18.699532   3.591422   18.699532
 390.0   3.592095   18.758036   3.592095   18.758036   3.592095   18.758036
 400.0   3.592770   18.816824   3.592770   18.816824   3.592770   18.816824
 410.0   3.593447   18.875936   3.593447   18.875936   3.593447   18.875936
 420.0   3.594127   18.935406   3.594127   18.935406   3.594127   18.935406
 430.0   3.594808   18.995268   3.594808   18.995268   3.594808   18.995268
 440.0   3.595492   19.055553   3.595492   19.055553   3.595492   19.055553
 450.0   3.596178   19.116290   3.596178   19.116290   3.596178   19.116290
 460.0   3.596867   19.177507   3.596867   19.177507   3.596867   19.177507
 470.0   3.597558   19.239230   3.597558   19.239230   3.597558   19.239230
 480.0   3.598251   19.301483   3.598251   19.301483   3.598251   19.301483
 490.0   3.598947   19.364290   3.598947   19.364290   3.598947   19.364290
 500.0   3.599645   19.427675   3.599645   19.427675   3.599645   19.427675
 510.0   3.600346   19.491661   3.600346   19.491661   3.600346   19.491661
 520.0   3.601049   19.556319   3.601049   19.556319   3.601049   19.556319
 530.0   3.601754   19.621305   3.601754   19.621305   3.601754   19.621305
 540.0   3.602462   19.688200   3.602462   19.688200   3.602462   19.688200
 550.0   3.603173   19.751112   3.603173   19.751112   3.603173   19.751112
 560.0   3.603885   19.803937   3.603885   19.803937   3.603885   19.803937
 570.0   3.604600   19.854000   3.604600   19.854000   3.604600   19.854000
 580.0   3.605317   19.905321   3.605317   19.905321   3.605317   19.905321
 590.0   3.606035   19.956824   3.606035   19.956824   3.606035   19.956824
 600.0   3.606756   20.008820   3.606756   20.008820   3.606756   20.008820
 610.0   3.607479   20.061247   3.607479   20.061247   3.607479   20.061247
 620.0   3.608203   20.114128   3.608203   20.114128   3.608203   20.114128
 630.0   3.608930   20.167472   3.608930   20.167472   3.608930   20.167472
 640.0   3.609659   20.221293   3.609659   20.221293   3.609659   20.221293
 650.0   3.610390   20.275601   3.610390   20.275601   3.610390   20.275601
 660.0   3.611123   20.330407   3.611123   20.330407   3.611123   20.330407
 670.0   3.611858   20.385723   3.611858   20.385723   3.611858   20.385723
 680.0   3.612596   20.441560   3.612596   20.441560   3.612596   20.441560
 690.0   3.613335   20.497929   3.613335   20.497929   3.613335   20.497929
 700.0   3.614077   20.554842   3.614077   20.554842   3.614077   20.554842
 710.0   3.614821   20.612311   3.614821   20.612311   3.614821   20.612311
 720.0   3.615567   20.670346   3.615567   20.670346   3.615567   20.670346
 730.0   3.616316   20.728960   3.616316   20.728960   3.616316   20.728960
 740.0   3.617067   20.788165   3.617067   20.788165   3.617067   20.788165
 750.0   3.617820   20.847972   3.617820   20.847972   3.617820   20.847972
 760.0   3.618575   20.908394   3.618575   20.908394   3.618575   20.908394
 770.0   3.619333   20.969444   3.619333   20.969444   3.619333   20.969444
 780.0   3.620093   21.031134   3.620093   21.031134   3.620093   21.031134
 790.0   3.620856   21.093477   3.620856   21.093477   3.620856   21.093477
 800.0   3.621621   21.156486   3.621621   21.156486   3.621621   21.156486
 810.0   3.622388   21.220174   3.622388   21.220174   3.622388   21.220174
 820.0   3.623158   21.284555   3.623158   21.284555   3.623158   21.284555
 830.0   3.623930   21.349644   3.623930   21.349644   3.623930   21.349644
 840.0   3.624705   21.415453   3.624705   21.415453   3.624705   21.415453
 850.0   3.625483   21.481998   3.625483   21.481998   3.625483   21.481998
 860.0   3.626263   21.549293   3.626263   21.549293   3.626263   21.549293
 870.0   3.627046   21.617354   3.627046   21.617354   3.627046   21.617354
 880.0   3.627831   21.686196   3.627831   21.686196   3.627831   21.686196
 890.0   3.628619   21.755835   3.628619   21.755835   3.628619   21.755835
 900.0   3.629410   21.826288   3.629410   21.826288   3.629410   21.826288
 910.0   3.630204   21.897570   3.630204   21.897570   3.630204   21.897570
 920.0   3.631000   21.969699   3.631000   21.969699   3.631000   21.969699
 930.0   3.631799   22.042692   3.631799   22.042692   3.631799   22.042692
 940.0   3.632601   22.116568   3.632601   22.116568   3.632601   22.116568
 950.0   3.633406   22.191345   3.633406   22.191345   3.633406   22.191345
 960.0   3.634214   22.267042   3.634214   22.267042   3.634214   22.267042
 970.0   3.635024   22.343679   3.635024   22.343679   3.635024   22.343679
 980.0   3.635838   22.421274   3.635838   22.421274   3.635838   22.421274
 990.0   3.636655   22.499850   3.636655   22.499850   3.636655   22.499850
1000.0   3.637475   22.579427   3.637475   22.579427   3.637475   22.579427
1010.0   3.638297   22.660026   3.638297   22.660026   3.638297   22.660026
1020.0   3.639123   22.741671   3.639123   22.741671   3.639123   22.741671
1030.0   3.639953   22.824383   3.639953   22.824383   3.639953   22.824383
1040.0   3.640785   22.908188   3.640785   22.908188   3.640785   22.908188
1050.0   3.641621   22.993109   3.641621   22.993109   3.641621   22.993109
1060.0   3.642460   23.079171   3.642460   23.079171   3.642460   23.079171
1070.0   3.643302   23.166401   3.643302   23.166401   3.643302   23.166401
1080.0   3.644148   23.254824   3.644148   23.254824   3.644148   23.254824
1090.0   3.644997   23.344470   3.644997   23.344470   3.644997   23.344470
1100.0   3.645850   23.435365   3.645850   23.435365   3.645850   23.435365
1110.0   3.646706   23.527540   3.646706   23.527540   3.646706   23.527540
1120.0   3.647566   23.621025   3.647566   23.621025   3.647566   23.621025
1130.0   3.648429   23.715850   3.648429   23.715850   3.648429   23.715850
1140.0   3.649296   23.812049   3.649296   23.812049   3.649296   23.812049
1150.0   3.650167   23.909654   3.650167   23.909654   3.650167   23.909654
1160.0   3.651042   24.008701   3.651042   24.008701   3.651042   24.008701
1170.0   3.651920   24.109224   3.651920   24.109224   3.651920   24.109224
1180.0   3.652802   24.211261   3.652802   24.211261   3.652802   24.211261
1190.0   3.653689   24.314850   3.653689   24.314850   3.653689   24.314850
1200.0   3.654579   24.420030   3.654579   24.420030   3.654579   24.420030
1210.0   3.655474   24.526843   3.655474   24.526843   3.655474   24.526843
1220.0   3.656372   24.635330   3.656372   24.635330   3.656372   24.635330
1230.0   3.657275   24.745537   3.657275   24.745537   3.657275   24.745537
1240.0   3.658183   24.857502   3.658183   24.857502   3.658183   24.857502
1250.0   3.659094   24.971309   3.659094   24.971309   3.659094   24.971309
1260.0   3.660010   25.086853   3.660010   25.086853   3.660010   25.086853
1270.0   3.660930   25.204406   3.660930   25.204406   3.660930   25.204406
1280.0   3.661855   25.324023   3.661855   25.324023   3.661855   25.324023
1290.0   3.662785   25.445535   3.662785   25.445535   3.662785   25.445535
1300.0   3.663719   25.569156   3.663719   25.569156   3.663719   25.569156
1310.0   3.664659   25.694904   3.664659   25.694904   3.664659   25.694904
1320.0   3.665603   25.822852   3.665603   25.822852   3.665603   25.822852
1330.0   3.666552   25.953060   3.666552   25.953060   3.666552   25.953060
1340.0   3.667506   26.085597   3.667506   26.085597   3.667506   26.085597
1350.0   3.668465   26.220532   3.668465   26.220532   3.668465   26.220532
1360.0   3.669430   26.357937   3.669430   26.357937   3.669430   26.357937
1370.0   3.670400   26.497889   3.670400   26.497889   3.670400   26.497889
1380.0   3.671375   26.640465   3.671375   26.640465   3.671375   26.640465
1390.0   3.672356   26.785750   3.672356   26.785750   3.672356   26.785750
1400.0   3.673342   26.933827   3.673342   26.933827   3.673342   26.933827
1410.0   3.674335   27.084788   3.674335   27.084788   3.674335   27.084788
1420.0   3.675333   27.305908   3.675333   27.305908   3.675333   27.305908
1430.0   3.676337   27.081098   3.676337   27.081098   3.676337   27.081098
1440.0   3.677347   28.638549   3.677347   28.638549   3.677347   28.638549
1450.0   3.678364   23.791925   3.678364   23.791925   3.678364   23.791925
1460.0   3.678942    6.260622   3.678942    6.260622   3.678942    6.260622
1470.0   3.678942   -1.678875   3.678942   -1.678875   3.678942   -1.678875
1480.0   3.678942    0.454878   3.678942    0.454878   3.678942    0.454878
1490.0   3.678942   -0.122649   3.678942   -0.122649   3.678942   -0.122649
1500.0   3.678942    0.023397   3.678942    0.023397   3.678942    0.023397
1510.0   3.678942    0.000000   3.678942    0.000000   3.678942    0.000000
1520.0   3.678942    0.000000   3.678942    0.000000   3.678942    0.000000
1530.0   3.678942    0.000000   3.678942    0.000000   3.678942    0.000000
1540.0   3.678942    0.000000   3.678942    0.000000   3.678942    0.000000
1550.0   3.678942    0.000000   3.678942    0.000000   3.678942    0.000000
1560.0   3.678942    0.000000   3.678942    0.000000   3.678942    0.000000
1570.0   3.678942    0.000000   3.678942    0.000000   3.678942    0.000000
1580.0   3.678942    0.000000   3.678942    0.000000   3.678942    0.000000
1590.0   3.678942    0.000000   3.678942    0.000000   3.678942    0.000000
1600.0   3.678942    0.000000   3.678942    0.000000   3.678942    0.000000
